frequenza [hz]	Z	df	dZ
220	20212.77	10	536.0167
270	12075.47	10	440.8062
330	9666.667	10	370.2268
80	42857.14	10	2412.966
170	24731.18	10	843.8154
740	4736.842	10	270.438
530	6338.028	10	295.4964
660	5066.667	10	275.0906
870	4102.564	10	261.7492
990	3544.304	10	257.1092
